* Measurement data measured by REW V5.31.1
* Source: Frequency response averaged data
* Format: Averaged data produced from the rms magnitudes of L FiiO FT1, L FiiO FT1, L FiiO FT1
* Dated: Sep 4, 2024 6:46:32 PM
* REW Settings:
*  C-weighting compensation: Off
*  Target level: 75.0 dB
* Note: Averaged data produced from the rms magnitudes of L FiiO FT1, L FiiO FT1, L FiiO FT1
* Measurement: RMS Average L
* Smoothing: 1/12 octave
* Frequency Step: 1/48 octave
* Start Frequency: 20.000 Hz
*
* Freq(Hz)	SPL(dB)
20.000000	80.290
20.299999	80.394
20.600000	80.499
20.900000	80.587
21.200001	80.645
21.400000	80.666
21.799999	80.674
22.000000	80.670
22.400000	80.665
22.700001	80.678
23.000000	80.711
23.299999	80.758
23.600000	80.813
24.000000	80.888
24.299999	80.943
24.700001	81.018
25.000000	81.076
25.400000	81.152
25.799999	81.209
26.200001	81.228
26.500000	81.215
26.900000	81.168
27.200001	81.127
27.600000	81.086
28.000000	81.073
28.500000	81.090
29.000000	81.108
29.500000	81.105
30.000000	81.093
30.400000	81.098
30.700001	81.120
31.100000	81.173
31.500000	81.244
32.000000	81.338
32.500000	81.425
33.000000	81.508
33.500000	81.598
34.000000	81.695
34.500000	81.782
35.000000	81.844
35.500000	81.874
36.000000	81.883
36.500000	81.876
37.000000	81.853
37.500000	81.808
38.200001	81.711
38.700001	81.633
39.500000	81.527
40.000000	81.471
40.599998	81.403
41.200001	81.332
41.799999	81.266
42.500000	81.208
43.099998	81.173
43.700001	81.139
44.400002	81.094
45.000000	81.046
45.500000	81.001
46.200001	80.931
46.799999	80.865
47.500000	80.777
48.200001	80.678
48.700001	80.603
49.400002	80.505
50.000000	80.434
50.799999	80.373
51.500000	80.345
52.200001	80.326
53.000000	80.290
53.799999	80.236
54.500000	80.181
55.200001	80.124
56.000000	80.055
57.000000	79.964
58.000000	79.868
59.000000	79.760
60.000000	79.646
60.799999	79.560
61.500000	79.496
62.200001	79.441
63.000000	79.380
64.000000	79.297
65.000000	79.210
66.000000	79.129
67.000000	79.064
68.000000	79.011
69.000000	78.968
70.000000	78.940
71.000000	78.931
72.000000	78.940
73.000000	78.964
74.000000	78.996
75.000000	79.030
76.199997	79.072
77.500000	79.125
78.800003	79.188
80.000000	79.253
81.199997	79.326
82.500000	79.410
83.800003	79.490
85.000000	79.549
86.199997	79.590
87.500000	79.615
88.500000	79.622
90.000000	79.618
91.199997	79.600
92.500000	79.566
93.800003	79.516
95.000000	79.458
96.199997	79.394
97.500000	79.322
98.800003	79.254
100.000000	79.196
101.500000	79.133
103.000000	79.084
104.400002	79.054
106.000000	79.032
107.500000	79.016
109.000000	79.000
110.599998	78.988
112.000000	78.982
113.800003	78.986
115.000000	78.993
117.199997	79.004
118.000000	79.008
120.599998	79.007
122.000000	78.992
124.099998	78.957
125.000000	78.941
126.500000	78.915
128.000000	78.885
131.500000	78.796
132.000000	78.783
134.000000	78.731
136.000000	78.677
138.000000	78.619
140.000000	78.553
143.000000	78.446
145.000000	78.369
147.500000	78.272
150.000000	78.174
152.500000	78.073
155.000000	77.969
157.500000	77.863
160.000000	77.761
162.500000	77.665
165.000000	77.569
167.500000	77.470
170.000000	77.369
172.500000	77.266
175.000000	77.160
177.500000	77.053
180.000000	76.942
182.500000	76.824
185.000000	76.695
187.500000	76.556
190.000000	76.419
192.500000	76.297
195.000000	76.198
197.500000	76.114
200.000000	76.035
203.000000	75.942
206.000000	75.851
209.000000	75.766
212.000000	75.690
214.000000	75.643
218.000000	75.554
220.000000	75.514
224.000000	75.442
227.000000	75.399
230.000000	75.367
233.000000	75.342
236.000000	75.320
240.000000	75.290
243.000000	75.263
247.000000	75.222
250.000000	75.188
254.000000	75.142
258.000000	75.097
262.000000	75.058
265.000000	75.034
269.000000	75.005
272.000000	74.983
276.000000	74.953
280.000000	74.923
285.000000	74.889
290.000000	74.858
295.000000	74.830
300.000000	74.804
304.000000	74.782
307.000000	74.765
311.000000	74.743
315.000000	74.723
320.000000	74.700
325.000000	74.681
330.000000	74.665
335.000000	74.653
340.000000	74.643
345.000000	74.636
350.000000	74.631
355.000000	74.628
360.000000	74.628
365.000000	74.631
370.000000	74.636
375.000000	74.641
382.000000	74.647
387.000000	74.653
395.000000	74.663
400.000000	74.672
406.000000	74.682
412.000000	74.693
418.000000	74.705
425.000000	74.721
431.000000	74.738
437.000000	74.756
444.000000	74.778
450.000000	74.798
455.000000	74.815
462.000000	74.840
468.000000	74.863
475.000000	74.892
482.000000	74.922
487.000000	74.944
494.000000	74.977
500.000000	75.007
508.000000	75.049
515.000000	75.090
522.000000	75.132
530.000000	75.183
538.000000	75.235
545.000000	75.283
552.000000	75.335
560.000000	75.400
570.000000	75.491
580.000000	75.597
590.000000	75.714
600.000000	75.825
608.000000	75.884
615.000000	75.894
622.000000	75.854
630.000000	75.750
640.000000	75.562
650.000000	75.360
660.000000	75.197
670.000000	75.109
680.000000	75.104
690.000000	75.153
700.000000	75.227
710.000000	75.304
720.000000	75.376
730.000000	75.438
740.000000	75.493
750.000000	75.541
762.000000	75.593
775.000000	75.638
788.000000	75.668
800.000000	75.678
812.000000	75.668
825.000000	75.633
838.000000	75.574
850.000000	75.503
862.000000	75.425
875.000000	75.339
885.000000	75.280
900.000000	75.213
912.000000	75.190
925.000000	75.205
938.000000	75.264
950.000000	75.355
962.000000	75.474
975.000000	75.624
988.000000	75.786
1000.000000	75.936
1015.000000	76.120
1030.000000	76.293
1044.000000	76.445
1060.000000	76.606
1075.000000	76.745
1090.000000	76.874
1106.000000	77.001
1120.000000	77.104
1138.000000	77.220
1150.000000	77.285
1172.000000	77.372
1180.000000	77.394
1206.000000	77.440
1220.000000	77.458
1241.000000	77.487
1250.000000	77.502
1265.000000	77.529
1280.000000	77.559
1315.000000	77.641
1320.000000	77.655
1340.000000	77.721
1360.000000	77.796
1380.000000	77.869
1400.000000	77.942
1430.000000	78.086
1450.000000	78.217
1475.000000	78.414
1500.000000	78.633
1525.000000	78.865
1550.000000	79.109
1575.000000	79.354
1600.000000	79.580
1625.000000	79.774
1650.000000	79.936
1675.000000	80.076
1700.000000	80.202
1725.000000	80.321
1750.000000	80.433
1775.000000	80.536
1800.000000	80.631
1825.000000	80.720
1850.000000	80.801
1875.000000	80.865
1900.000000	80.893
1925.000000	80.879
1950.000000	80.828
1975.000000	80.749
2000.000000	80.652
2030.000000	80.527
2060.000000	80.414
2090.000000	80.332
2120.000000	80.293
2140.000000	80.288
2180.000000	80.324
2200.000000	80.364
2240.000000	80.491
2270.000000	80.628
2300.000000	80.795
2330.000000	80.982
2360.000000	81.178
2400.000000	81.440
2430.000000	81.632
2470.000000	81.889
2500.000000	82.089
2540.000000	82.374
2580.000000	82.674
2620.000000	82.974
2650.000000	83.189
2690.000000	83.462
2720.000000	83.656
2760.000000	83.902
2800.000000	84.129
2850.000000	84.389
2900.000000	84.635
2950.000000	84.877
3000.000000	85.115
3040.000000	85.292
3070.000000	85.410
3110.000000	85.535
3150.000000	85.614
3200.000000	85.643
3250.000000	85.603
3300.000000	85.509
3350.000000	85.381
3400.000000	85.242
3450.000000	85.104
3500.000000	84.972
3550.000000	84.838
3600.000000	84.692
3650.000000	84.537
3700.000000	84.380
3750.000000	84.228
3820.000000	84.033
3870.000000	83.917
3950.000000	83.785
4000.000000	83.736
4060.000000	83.701
4120.000000	83.682
4180.000000	83.681
4250.000000	83.710
4310.000000	83.779
4370.000000	83.904
4440.000000	84.137
4500.000000	84.416
4550.000000	84.698
4620.000000	85.151
4680.000000	85.571
4750.000000	86.071
4820.000000	86.536
4870.000000	86.814
4940.000000	87.076
5000.000000	87.150
5080.000000	87.008
5150.000000	86.666
5220.000000	86.157
5300.000000	85.434
5380.000000	84.631
5450.000000	83.914
5520.000000	83.219
5600.000000	82.477
5700.000000	81.624
5800.000000	80.784
5900.000000	79.850
6000.000000	78.782
6080.000000	77.872
6150.000000	77.084
6220.000000	76.337
6300.000000	75.545
6400.000000	74.599
6500.000000	73.552
6600.000000	72.279
6700.000000	71.057
6800.000000	70.801
6900.000000	71.828
7000.000000	73.260
7100.000000	74.483
7200.000000	75.387
7300.000000	76.031
7400.000000	76.490
7500.000000	76.817
7620.000000	77.073
7750.000000	77.206
7880.000000	77.202
8000.000000	77.093
8120.000000	76.928
8250.000000	76.772
8380.000000	76.687
8500.000000	76.655
8620.000000	76.653
8750.000000	76.669
8850.000000	76.660
9000.000000	76.477
9120.000000	76.056
9250.000000	75.218
9380.000000	73.952
9500.000000	72.475
9620.000000	70.860
9750.000000	69.229
9880.000000	68.109
10000.000000	67.855
10150.000000	68.653
10300.000000	70.169
10440.000000	71.613
10600.000000	72.786
10750.000000	73.201
10900.000000	72.998
11060.000000	72.528
11200.000000	72.387
11380.000000	72.630
11500.000000	72.745
11720.000000	72.480
11800.000000	72.274
12060.000000	71.763
12200.000000	71.889
12410.000000	72.834
12500.000000	73.481
12650.000000	74.722
12800.000000	75.956
13150.000000	77.992
13200.000000	78.176
13400.000000	78.795
13600.000000	79.412
13800.000000	80.044
14000.000000	80.730
14300.000000	82.048
14500.000000	82.855
14750.000000	83.492
15000.000000	84.002
15250.000000	84.410
15500.000000	84.052
15750.000000	82.449
16000.000000	79.733
16250.000000	76.919
16500.000000	75.845
16750.000000	76.422
17000.000000	77.032
17250.000000	76.901
17500.000000	75.815
17750.000000	73.857
18000.000000	71.340
18250.000000	68.841
18500.000000	67.160
18750.000000	66.602
19000.000000	66.732
19250.000000	67.104
19500.000000	67.439
19750.000000	67.575
