* Measurement data measured by REW V5.20.13
* Source: Frequency Response Averaged data
* Format: Averaged data produced from the rms magnitudes of HD800s Dkni EPL R, HD800s Dkni EPL R, HD800s Dkni EPL R
* Dated: Apr 9, 2024 4:12:07 PM
* REW Settings:
*  C-weighting compensation: Off
*  Target level: 75.0 dB
* Note: Averaged data produced from the rms magnitudes of HD800s Dkni EPL R, HD800s Dkni EPL R, HD800s Dkni EPL R
* Measurement: RMS Avg Dkni EPL R
* Smoothing: 1/12 octave
* Frequency Step: 1/48 octave
* Start Frequency: 20.000 Hz
*
* Freq(Hz)	SPL(dB)
20.000000	56.709
20.299999	56.777
20.600000	56.875
20.900000	57.033
21.200001	57.267
21.400000	57.459
21.799999	57.890
22.000000	58.101
22.400000	58.450
22.700001	58.617
23.000000	58.699
23.299999	58.732
23.600000	58.769
24.000000	58.915
24.299999	59.135
24.700001	59.542
25.000000	59.868
25.400000	60.247
25.799999	60.518
26.200001	60.697
26.500000	60.802
26.900000	60.935
27.200001	61.036
27.600000	61.161
28.000000	61.261
28.500000	61.362
29.000000	61.501
29.500000	61.731
30.000000	62.029
30.400000	62.275
30.700001	62.447
31.100000	62.653
31.500000	62.835
32.000000	63.034
32.500000	63.210
33.000000	63.374
33.500000	63.537
34.000000	63.700
34.500000	63.849
35.000000	63.967
35.500000	64.061
36.000000	64.160
36.500000	64.291
37.000000	64.453
37.500000	64.622
38.200001	64.829
38.700001	64.953
39.500000	65.130
40.000000	65.229
40.599998	65.337
41.200001	65.448
41.799999	65.571
42.500000	65.716
43.099998	65.822
43.700001	65.911
44.400002	66.019
45.000000	66.127
45.500000	66.224
46.200001	66.360
46.799999	66.463
47.500000	66.558
48.200001	66.636
48.700001	66.690
49.400002	66.770
50.000000	66.847
50.799999	66.952
51.500000	67.041
52.200001	67.125
53.000000	67.216
53.799999	67.293
54.500000	67.353
55.200001	67.421
56.000000	67.518
57.000000	67.664
58.000000	67.823
59.000000	67.971
60.000000	68.097
60.799999	68.180
61.500000	68.243
62.200001	68.298
63.000000	68.356
64.000000	68.428
65.000000	68.504
66.000000	68.581
67.000000	68.661
68.000000	68.743
69.000000	68.825
70.000000	68.905
71.000000	68.984
72.000000	69.058
73.000000	69.125
74.000000	69.183
75.000000	69.232
76.199997	69.282
77.500000	69.335
78.800003	69.391
80.000000	69.441
81.199997	69.489
82.500000	69.538
83.800003	69.582
85.000000	69.615
86.199997	69.644
87.500000	69.679
88.500000	69.713
90.000000	69.783
91.199997	69.853
92.500000	69.933
93.800003	70.003
95.000000	70.045
96.199997	70.065
97.500000	70.069
98.800003	70.070
100.000000	70.078
101.500000	70.103
103.000000	70.142
104.400002	70.183
106.000000	70.227
107.500000	70.261
109.000000	70.289
110.599998	70.308
112.000000	70.316
113.800003	70.325
115.000000	70.335
117.199997	70.377
118.000000	70.401
120.599998	70.486
122.000000	70.519
124.099998	70.544
125.000000	70.551
126.500000	70.563
128.000000	70.584
131.500000	70.661
132.000000	70.673
134.000000	70.717
136.000000	70.754
138.000000	70.785
140.000000	70.806
143.000000	70.830
145.000000	70.855
147.500000	70.904
150.000000	70.961
152.500000	71.016
155.000000	71.059
157.500000	71.090
160.000000	71.109
162.500000	71.125
165.000000	71.141
167.500000	71.162
170.000000	71.188
172.500000	71.218
175.000000	71.249
177.500000	71.280
180.000000	71.309
182.500000	71.333
185.000000	71.355
187.500000	71.379
190.000000	71.405
192.500000	71.430
195.000000	71.451
197.500000	71.471
200.000000	71.493
203.000000	71.519
206.000000	71.543
209.000000	71.568
212.000000	71.594
214.000000	71.610
218.000000	71.643
220.000000	71.660
224.000000	71.694
227.000000	71.718
230.000000	71.741
233.000000	71.763
236.000000	71.782
240.000000	71.805
243.000000	71.821
247.000000	71.844
250.000000	71.862
254.000000	71.886
258.000000	71.910
262.000000	71.934
265.000000	71.951
269.000000	71.971
272.000000	71.986
276.000000	72.006
280.000000	72.026
285.000000	72.047
290.000000	72.067
295.000000	72.089
300.000000	72.111
304.000000	72.128
307.000000	72.141
311.000000	72.158
315.000000	72.174
320.000000	72.194
325.000000	72.215
330.000000	72.240
335.000000	72.265
340.000000	72.287
345.000000	72.308
350.000000	72.329
355.000000	72.349
360.000000	72.369
365.000000	72.389
370.000000	72.408
375.000000	72.426
382.000000	72.452
387.000000	72.472
395.000000	72.500
400.000000	72.513
406.000000	72.522
412.000000	72.528
418.000000	72.534
425.000000	72.539
431.000000	72.540
437.000000	72.537
444.000000	72.535
450.000000	72.540
455.000000	72.550
462.000000	72.570
468.000000	72.587
475.000000	72.597
482.000000	72.596
487.000000	72.592
494.000000	72.590
500.000000	72.589
508.000000	72.584
515.000000	72.581
522.000000	72.585
530.000000	72.599
538.000000	72.618
545.000000	72.634
552.000000	72.648
560.000000	72.661
570.000000	72.672
580.000000	72.683
590.000000	72.701
600.000000	72.720
608.000000	72.733
615.000000	72.745
622.000000	72.757
630.000000	72.773
640.000000	72.792
650.000000	72.806
660.000000	72.816
670.000000	72.822
680.000000	72.816
690.000000	72.804
700.000000	72.790
710.000000	72.779
720.000000	72.778
730.000000	72.783
740.000000	72.792
750.000000	72.799
762.000000	72.809
775.000000	72.822
788.000000	72.843
800.000000	72.881
812.000000	72.936
825.000000	73.006
838.000000	73.068
850.000000	73.110
862.000000	73.142
875.000000	73.174
885.000000	73.200
900.000000	73.232
912.000000	73.242
925.000000	73.244
938.000000	73.241
950.000000	73.227
962.000000	73.203
975.000000	73.165
988.000000	73.113
1000.000000	73.050
1015.000000	72.958
1030.000000	72.871
1044.000000	72.804
1060.000000	72.757
1075.000000	72.745
1090.000000	72.747
1106.000000	72.750
1120.000000	72.748
1138.000000	72.727
1150.000000	72.689
1172.000000	72.574
1180.000000	72.526
1206.000000	72.362
1220.000000	72.274
1241.000000	72.150
1250.000000	72.102
1265.000000	72.039
1280.000000	72.003
1315.000000	71.990
1320.000000	71.992
1340.000000	72.013
1360.000000	72.047
1380.000000	72.087
1400.000000	72.124
1430.000000	72.147
1450.000000	72.126
1475.000000	72.091
1500.000000	72.145
1525.000000	72.291
1550.000000	72.439
1575.000000	72.553
1600.000000	72.647
1625.000000	72.738
1650.000000	72.818
1675.000000	72.883
1700.000000	72.947
1725.000000	73.028
1750.000000	73.126
1775.000000	73.232
1800.000000	73.350
1825.000000	73.488
1850.000000	73.646
1875.000000	73.812
1900.000000	73.977
1925.000000	74.138
1950.000000	74.298
1975.000000	74.463
2000.000000	74.642
2030.000000	74.869
2060.000000	75.097
2090.000000	75.317
2120.000000	75.533
2140.000000	75.677
2180.000000	75.965
2200.000000	76.109
2240.000000	76.406
2270.000000	76.636
2300.000000	76.875
2330.000000	77.125
2360.000000	77.390
2400.000000	77.760
2430.000000	78.043
2470.000000	78.420
2500.000000	78.710
2540.000000	79.116
2580.000000	79.542
2620.000000	79.994
2650.000000	80.346
2690.000000	80.834
2720.000000	81.209
2760.000000	81.712
2800.000000	82.210
2850.000000	82.803
2900.000000	83.336
2950.000000	83.795
3000.000000	84.167
3040.000000	84.391
3070.000000	84.514
3110.000000	84.615
3150.000000	84.647
3200.000000	84.598
3250.000000	84.466
3300.000000	84.256
3350.000000	83.973
3400.000000	83.656
3450.000000	83.352
3500.000000	83.075
3550.000000	82.820
3600.000000	82.590
3650.000000	82.379
3700.000000	82.178
3750.000000	81.995
3820.000000	81.814
3870.000000	81.749
3950.000000	81.744
4000.000000	81.803
4060.000000	81.924
4120.000000	82.066
4180.000000	82.170
4250.000000	82.157
4310.000000	82.008
4370.000000	81.738
4440.000000	81.253
4500.000000	80.675
4550.000000	80.096
4620.000000	79.192
4680.000000	78.378
4750.000000	77.448
4820.000000	76.593
4870.000000	76.037
4940.000000	75.324
5000.000000	74.774
5080.000000	74.157
5150.000000	73.780
5220.000000	73.613
5300.000000	73.707
5380.000000	74.033
5450.000000	74.403
5520.000000	74.783
5600.000000	75.202
5700.000000	75.703
5800.000000	76.189
5900.000000	76.680
6000.000000	77.205
6080.000000	77.655
6150.000000	78.066
6220.000000	78.495
6300.000000	79.031
6400.000000	79.795
6500.000000	80.631
6600.000000	81.400
6700.000000	81.888
6800.000000	81.882
6900.000000	81.276
7000.000000	80.112
7100.000000	78.557
7200.000000	76.846
7300.000000	75.277
7400.000000	74.186
7500.000000	73.784
7620.000000	74.005
7750.000000	74.503
7880.000000	74.966
8000.000000	75.474
8120.000000	76.228
8250.000000	77.321
8380.000000	78.473
8500.000000	79.285
8620.000000	79.607
8750.000000	79.300
8850.000000	78.666
9000.000000	77.301
9120.000000	76.037
9250.000000	74.679
9380.000000	73.513
9500.000000	72.674
9620.000000	71.988
9750.000000	71.282
9880.000000	70.565
10000.000000	69.977
10150.000000	69.633
10300.000000	70.066
10440.000000	71.156
10600.000000	72.707
10750.000000	73.893
10900.000000	74.452
11060.000000	74.212
11200.000000	73.349
11380.000000	71.673
11500.000000	70.544
11720.000000	69.568
11800.000000	69.697
12060.000000	70.963
12200.000000	71.637
12410.000000	72.357
12500.000000	72.573
12650.000000	72.849
12800.000000	73.085
13150.000000	74.014
13200.000000	74.189
13400.000000	74.750
13600.000000	74.815
13800.000000	74.300
14000.000000	73.331
14300.000000	71.397
14500.000000	70.199
14750.000000	69.732
15000.000000	70.728
15250.000000	72.159
15500.000000	73.198
15750.000000	73.661
16000.000000	73.593
16250.000000	73.055
16500.000000	72.248
16750.000000	71.658
17000.000000	71.615
17250.000000	71.720
17500.000000	71.438
17750.000000	70.599
18000.000000	69.360
18250.000000	68.180
18500.000000	67.639
18750.000000	67.849
19000.000000	68.364
19250.000000	68.761
19500.000000	68.870
19750.000000	68.727
