* Measurement data measured by REW V5.20.13
* Source: EXCL: Headset (USB-C to 3.5mm Headphone Jack Adapter), MICROPHONE (Master Volume), 0, volume: 0.260. Timing signal peak level -35.2 dBFS, measurement signal peak level -34.9 dBFS
* Format: 256k Log Swept Sine, 1 sweep at -12.0 dBFS using an acoustic timing reference
* Dated: Mar 2, 2024 12:43:42 PM
* REW Settings:
*  C-weighting compensation: Off
*  Target level: 75.0 dB
* Note: Delay -0.0343 ms (-12 mm, -0.46 in) using estimated IR delay relative to Acoustic reference played from  R with no timing offset Clock adjustment: -52.7 ppm
* Measurement: Orthrus 5m Nylon Front R
* Smoothing: 1/12 octave
* Frequency Step: 1/48 octave
* Start Frequency: 20.000 Hz
*
* Freq(Hz)	SPL(dB)	Phase(degrees)
20.000000	69.861	143.8325
20.299999	70.065	141.7614
20.600000	70.262	139.6655
20.900000	70.445	137.6006
21.200001	70.614	135.6486
21.400000	70.720	134.4539
21.799999	70.936	132.3834
22.000000	71.054	131.5086
22.400000	71.321	130.0067
22.700001	71.554	128.9812
23.000000	71.805	127.9395
23.299999	72.060	126.8197
23.600000	72.305	125.6097
24.000000	72.593	123.9282
24.299999	72.776	122.7110
24.700001	72.981	121.2776
25.000000	73.118	120.3909
25.400000	73.299	119.4415
25.799999	73.494	118.6345
26.200001	73.706	117.7811
26.500000	73.870	117.0033
26.900000	74.075	115.6928
27.200001	74.207	114.4890
27.600000	74.335	112.6469
28.000000	74.400	110.6613
28.500000	74.396	108.2416
29.000000	74.336	106.1436
29.500000	74.275	104.4087
30.000000	74.259	102.8215
30.400000	74.283	101.4631
30.700001	74.314	100.3253
31.100000	74.355	98.6496
31.500000	74.383	96.8806
32.000000	74.399	94.7415
32.500000	74.413	92.8425
33.000000	74.453	91.1663
33.500000	74.526	89.5607
34.000000	74.614	87.8904
34.500000	74.688	86.1505
35.000000	74.734	84.4458
35.500000	74.752	82.8832
36.000000	74.753	81.5011
36.500000	74.743	80.2760
37.000000	74.728	79.1674
37.500000	74.707	78.1518
38.200001	74.671	76.8859
38.700001	74.645	76.1054
39.500000	74.621	75.0746
40.000000	74.623	74.5340
40.599998	74.642	73.9446
41.200001	74.672	73.4379
41.799999	74.711	73.0849
42.500000	74.788	72.8633
43.099998	74.883	72.6725
43.700001	74.983	72.3443
44.400002	75.072	71.8526
45.000000	75.130	71.4397
45.500000	75.173	71.0609
46.200001	75.214	70.3606
46.799999	75.208	69.6855
47.500000	75.172	69.1223
48.200001	75.177	68.8468
48.700001	75.235	68.5932
49.400002	75.365	67.7980
50.000000	75.475	66.6860
50.799999	75.575	64.9641
51.500000	75.631	63.5970
52.200001	75.686	62.4817
53.000000	75.764	61.4414
53.799999	75.844	60.5630
54.500000	75.905	59.9279
55.200001	75.952	59.4460
56.000000	75.993	59.0988
57.000000	76.037	58.9334
58.000000	76.094	58.9941
59.000000	76.202	59.0792
60.000000	76.358	58.6916
60.799999	76.463	57.9344
61.500000	76.522	57.1503
62.200001	76.566	56.4007
63.000000	76.616	55.6106
64.000000	76.691	54.6798
65.000000	76.783	53.7952
66.000000	76.889	52.9465
67.000000	77.009	52.1204
68.000000	77.136	51.2865
69.000000	77.263	50.4144
70.000000	77.382	49.4902
71.000000	77.487	48.5128
72.000000	77.574	47.4995
73.000000	77.643	46.4951
74.000000	77.696	45.5469
75.000000	77.741	44.6865
76.199997	77.790	43.7926
77.500000	77.850	43.0040
78.800003	77.927	42.3621
80.000000	78.023	41.8395
81.199997	78.151	41.3125
82.500000	78.330	40.5850
83.800003	78.531	39.5386
85.000000	78.708	38.3158
86.199997	78.870	36.9438
87.500000	79.028	35.3291
88.500000	79.133	34.0089
90.000000	79.262	31.9280
91.199997	79.343	30.1779
92.500000	79.406	28.1900
93.800003	79.438	26.1335
95.000000	79.439	24.2307
96.199997	79.413	22.3781
97.500000	79.356	20.4716
98.800003	79.270	18.6987
100.000000	79.164	17.2081
101.500000	79.003	15.5820
103.000000	78.819	14.2535
104.400002	78.642	13.3116
106.000000	78.450	12.6077
107.500000	78.301	12.2692
109.000000	78.193	12.1547
110.599998	78.128	12.1677
112.000000	78.119	12.1804
113.800003	78.168	12.0355
115.000000	78.230	11.7905
117.199997	78.374	11.0023
118.000000	78.425	10.6131
120.599998	78.541	9.1681
122.000000	78.576	8.3705
124.099998	78.616	7.0498
125.000000	78.626	6.4043
126.500000	78.628	5.2609
128.000000	78.612	4.1334
131.500000	78.553	1.7924
132.000000	78.544	1.4725
134.000000	78.505	0.1810
136.000000	78.456	-1.1165
138.000000	78.400	-2.3825
140.000000	78.336	-3.6024
143.000000	78.224	-5.4111
145.000000	78.138	-6.6652
147.500000	78.016	-8.2720
150.000000	77.886	-9.7495
152.500000	77.756	-11.0436
155.000000	77.624	-12.2112
157.500000	77.494	-13.3378
160.000000	77.366	-14.4111
162.500000	77.232	-15.4556
165.000000	77.078	-16.4631
167.500000	76.911	-17.4326
170.000000	76.742	-18.3770
172.500000	76.567	-19.1899
175.000000	76.387	-19.8320
177.500000	76.203	-20.4670
180.000000	76.019	-21.1775
182.500000	75.851	-21.8676
185.000000	75.708	-22.4683
187.500000	75.578	-23.0486
190.000000	75.435	-23.6808
192.500000	75.266	-24.2713
195.000000	75.083	-24.6354
197.500000	74.925	-24.7559
200.000000	74.814	-24.8710
203.000000	74.724	-25.3777
206.000000	74.622	-26.3618
209.000000	74.464	-27.4930
212.000000	74.255	-28.3202
214.000000	74.102	-28.5425
218.000000	73.787	-28.0343
220.000000	73.626	-27.3665
224.000000	73.271	-25.7766
227.000000	72.969	-24.9573
230.000000	72.683	-24.7932
233.000000	72.492	-25.0473
236.000000	72.418	-25.0571
240.000000	72.342	-24.1976
243.000000	72.224	-23.5045
247.000000	72.078	-22.9677
250.000000	71.996	-22.3778
254.000000	71.828	-21.4114
258.000000	71.630	-20.8201
262.000000	71.474	-20.2878
265.000000	71.367	-19.7996
269.000000	71.238	-19.0915
272.000000	71.152	-18.4923
276.000000	71.045	-17.6489
280.000000	70.949	-16.8181
285.000000	70.847	-15.8105
290.000000	70.755	-14.8782
295.000000	70.660	-14.0522
300.000000	70.576	-13.2619
304.000000	70.531	-12.5808
307.000000	70.505	-12.0543
311.000000	70.469	-11.3644
315.000000	70.428	-10.6913
320.000000	70.370	-9.8477
325.000000	70.310	-8.9791
330.000000	70.255	-8.0766
335.000000	70.211	-7.1395
340.000000	70.183	-6.1793
345.000000	70.172	-5.2334
350.000000	70.175	-4.3549
355.000000	70.187	-3.5800
360.000000	70.201	-2.9018
365.000000	70.206	-2.2805
370.000000	70.206	-1.6781
375.000000	70.206	-1.0771
382.000000	70.212	-0.2327
387.000000	70.220	0.3640
395.000000	70.238	1.2925
400.000000	70.252	1.8607
406.000000	70.272	2.5396
412.000000	70.292	3.2251
418.000000	70.316	3.8762
425.000000	70.359	4.4807
431.000000	70.403	4.8929
437.000000	70.447	5.2868
444.000000	70.493	5.7551
450.000000	70.529	6.1664
455.000000	70.559	6.5154
462.000000	70.603	7.0042
468.000000	70.645	7.4039
475.000000	70.701	7.8270
482.000000	70.761	8.1985
487.000000	70.804	8.4321
494.000000	70.863	8.7103
500.000000	70.912	8.8995
508.000000	70.974	9.0831
515.000000	71.024	9.1945
522.000000	71.073	9.2753
530.000000	71.128	9.3322
538.000000	71.173	9.3524
545.000000	71.198	9.3565
552.000000	71.211	9.3649
560.000000	71.222	9.3835
570.000000	71.239	9.4055
580.000000	71.257	9.4247
590.000000	71.271	9.4479
600.000000	71.280	9.4559
608.000000	71.286	9.4328
615.000000	71.288	9.4011
622.000000	71.289	9.3700
630.000000	71.285	9.3386
640.000000	71.275	9.3062
650.000000	71.261	9.2776
660.000000	71.243	9.2623
670.000000	71.214	9.2853
680.000000	71.178	9.3502
690.000000	71.140	9.4465
700.000000	71.105	9.5660
710.000000	71.074	9.7022
720.000000	71.048	9.8370
730.000000	71.026	9.9343
740.000000	71.005	9.9545
750.000000	70.973	9.8867
762.000000	70.909	9.7484
775.000000	70.802	9.6754
788.000000	70.666	9.8136
800.000000	70.530	10.1549
812.000000	70.398	10.6711
825.000000	70.268	11.3882
838.000000	70.153	12.2174
850.000000	70.056	13.0318
862.000000	69.963	13.9091
875.000000	69.874	15.0035
885.000000	69.822	15.9571
900.000000	69.787	17.4202
912.000000	69.792	18.4182
925.000000	69.799	19.2209
938.000000	69.775	19.8623
950.000000	69.716	20.5531
962.000000	69.641	21.5184
975.000000	69.587	22.8401
988.000000	69.582	24.1621
1000.000000	69.594	25.2020
1015.000000	69.585	26.4492
1030.000000	69.560	28.0079
1044.000000	69.571	29.8065
1060.000000	69.676	31.9886
1075.000000	69.863	33.7726
1090.000000	70.094	35.0153
1106.000000	70.330	35.6896
1120.000000	70.495	35.8822
1138.000000	70.632	35.9103
1150.000000	70.681	35.9391
1172.000000	70.712	36.2159
1180.000000	70.712	36.4103
1206.000000	70.701	37.3985
1220.000000	70.699	38.1324
1241.000000	70.717	39.4265
1250.000000	70.734	40.0287
1265.000000	70.774	41.0668
1280.000000	70.825	42.1216
1315.000000	70.991	44.5396
1320.000000	71.019	44.8750
1340.000000	71.140	46.1902
1360.000000	71.272	47.4660
1380.000000	71.416	48.7037
1400.000000	71.572	49.8993
1430.000000	71.824	51.5990
1450.000000	72.003	52.6751
1475.000000	72.238	53.9368
1500.000000	72.486	55.0743
1525.000000	72.738	56.0899
1550.000000	72.992	56.9953
1575.000000	73.247	57.8084
1600.000000	73.506	58.5383
1625.000000	73.769	59.1774
1650.000000	74.035	59.7185
1675.000000	74.304	60.1595
1700.000000	74.572	60.4955
1725.000000	74.835	60.7234
1750.000000	75.090	60.8532
1775.000000	75.335	60.9109
1800.000000	75.570	60.9327
1825.000000	75.799	60.9450
1850.000000	76.028	60.9472
1875.000000	76.260	60.9157
1900.000000	76.494	60.8164
1925.000000	76.725	60.6264
1950.000000	76.950	60.3477
1975.000000	77.167	60.0014
2000.000000	77.376	59.6107
2030.000000	77.615	59.1027
2060.000000	77.842	58.5571
2090.000000	78.058	57.9749
2120.000000	78.264	57.3664
2140.000000	78.396	56.9533
2180.000000	78.648	56.1235
2200.000000	78.769	55.7086
2240.000000	79.002	54.8815
2270.000000	79.172	54.2686
2300.000000	79.338	53.6661
2330.000000	79.502	53.0694
2360.000000	79.663	52.4697
2400.000000	79.876	51.6607
2430.000000	80.033	51.0513
2470.000000	80.242	50.2440
2500.000000	80.400	49.6448
2540.000000	80.617	48.8462
2580.000000	80.842	48.0276
2620.000000	81.078	47.1567
2650.000000	81.263	46.4481
2690.000000	81.520	45.3997
2720.000000	81.719	44.5123
2760.000000	81.991	43.1595
2800.000000	82.263	41.5782
2850.000000	82.592	39.2372
2900.000000	82.889	36.4835
2950.000000	83.136	33.3698
3000.000000	83.326	29.9763
3040.000000	83.432	27.1017
3070.000000	83.483	24.8722
3110.000000	83.509	21.8345
3150.000000	83.486	18.7672
3200.000000	83.386	14.9642
3250.000000	83.205	11.2923
3300.000000	82.944	7.9009
3350.000000	82.617	4.9348
3400.000000	82.244	2.4470
3450.000000	81.845	0.4181
3500.000000	81.431	-1.1837
3550.000000	81.010	-2.3769
3600.000000	80.590	-3.1764
3650.000000	80.180	-3.6145
3700.000000	79.787	-3.7372
3750.000000	79.415	-3.5869
3820.000000	78.934	-2.9827
3870.000000	78.618	-2.3055
3950.000000	78.165	-0.8328
4000.000000	77.917	0.3213
4060.000000	77.663	1.9254
4120.000000	77.465	3.7227
4180.000000	77.330	5.6273
4250.000000	77.250	7.8706
4310.000000	77.242	9.7523
4370.000000	77.285	11.5715
4440.000000	77.398	13.5989
4500.000000	77.549	15.2410
4550.000000	77.717	16.5271
4620.000000	78.021	18.1576
4680.000000	78.353	19.3341
4750.000000	78.829	20.3348
4820.000000	79.405	20.7699
4870.000000	79.872	20.6122
4940.000000	80.591	19.5208
5000.000000	81.238	17.5569
5080.000000	82.074	13.1066
5150.000000	82.692	7.2925
5220.000000	83.112	-0.2389
5300.000000	83.257	-10.3408
5380.000000	82.987	-20.8258
5450.000000	82.421	-29.2122
5520.000000	81.603	-36.1504
5600.000000	80.453	-41.9713
5700.000000	78.857	-46.2794
5800.000000	77.246	-47.9861
5900.000000	75.719	-47.8389
6000.000000	74.311	-46.3596
6080.000000	73.273	-44.4247
6150.000000	72.426	-42.2607
6220.000000	71.636	-39.6932
6300.000000	70.802	-36.2919
6400.000000	69.872	-31.3727
6500.000000	69.085	-25.7620
6600.000000	68.471	-19.5769
6700.000000	68.070	-13.0528
6800.000000	67.911	-6.5392
6900.000000	68.000	-0.4600
7000.000000	68.301	4.7567
7100.000000	68.746	8.7444
7200.000000	69.252	11.2861
7300.000000	69.738	12.3815
7400.000000	70.145	12.2230
7500.000000	70.442	11.1116
7620.000000	70.634	8.9780
7750.000000	70.638	6.1934
7880.000000	70.431	3.3584
8000.000000	70.037	1.2186
8120.000000	69.458	0.3353
8250.000000	68.731	1.5860
8380.000000	68.138	5.1786
8500.000000	67.957	9.7673
8620.000000	68.265	14.1946
8750.000000	69.057	16.8840
8850.000000	69.780	16.3050
9000.000000	70.624	10.3598
9120.000000	70.835	2.2841
9250.000000	70.495	-7.2516
9380.000000	69.624	-15.2094
9500.000000	68.479	-20.1226
9620.000000	67.131	-22.6447
9750.000000	65.545	-22.9509
9880.000000	63.877	-20.7495
10000.000000	62.285	-15.9260
10150.000000	60.355	-4.4753
10300.000000	59.270	14.3018
10440.000000	60.203	35.8222
10600.000000	62.856	55.8625
10750.000000	65.214	62.5916
10900.000000	66.791	57.9342
11060.000000	67.551	46.9317
11200.000000	67.614	37.4458
11380.000000	67.259	28.8401
11500.000000	66.955	25.3286
11720.000000	66.564	21.6488
11800.000000	66.510	20.7254
12060.000000	66.681	17.5361
12200.000000	66.960	14.9340
12410.000000	67.492	8.7244
12500.000000	67.709	5.0020
12650.000000	67.980	-2.6982
12800.000000	68.068	-12.0701
13150.000000	67.307	-37.4828
13200.000000	67.083	-41.1958
13400.000000	65.928	-55.6740
13600.000000	64.428	-69.5781
13800.000000	62.683	-83.8839
14000.000000	60.796	-100.7482
14300.000000	57.972	-137.4127
14500.000000	56.437	-172.3876
14750.000000	55.500	135.6923
15000.000000	55.510	85.8390
15250.000000	55.624	47.3485
15500.000000	55.435	21.3980
15750.000000	54.997	4.7683
16000.000000	54.499	-5.8900
16250.000000	54.192	-13.0276
16500.000000	54.338	-19.2286
16750.000000	54.876	-27.7518
17000.000000	55.349	-40.5246
17250.000000	55.383	-56.1951
17500.000000	54.961	-71.7857
17750.000000	54.355	-85.6160
18000.000000	53.972	-98.3173
18250.000000	54.107	-112.1935
18500.000000	54.683	-129.8864
18750.000000	55.380	-153.1477
19000.000000	55.926	177.6543
19250.000000	56.184	143.5771
19500.000000	56.127	107.5969
19750.000000	55.850	75.5623
