* Measurement data measured by REW V5.20.13
* Source: EXCL: Headset (USB-C to 3.5mm Headphone Jack Adapter), MICROPHONE (Master Volume), 0, volume: 0.260
* Format: 256k Log Swept Sine, 1 sweep at -12.0 dBFS with no timing reference
* Dated: Dec 22, 2023 6:58:55 PM
* REW Settings:
*  C-weighting compensation: Off
*  Target level: 75.0 dB
* Note: 
* Measurement: Prototype Axis Closed
* Smoothing: 1/12 octave
* Frequency Step: 1/48 octave
* Start Frequency: 20.000 Hz
*
* Freq(Hz)	SPL(dB)	Phase(degrees)
20.000000	69.127	115.0801
20.299999	69.169	113.4469
20.600000	69.233	111.8731
20.900000	69.297	110.2591
21.200001	69.338	108.6555
21.400000	69.347	107.6721
21.799999	69.349	106.0986
22.000000	69.357	105.5363
22.400000	69.424	104.7370
22.700001	69.531	104.1919
23.000000	69.674	103.4978
23.299999	69.826	102.5696
23.600000	69.964	101.4422
24.000000	70.110	99.8522
24.299999	70.202	98.7490
24.700001	70.334	97.4529
25.000000	70.457	96.4993
25.400000	70.646	95.0196
25.799999	70.822	93.1425
26.200001	70.940	90.9746
26.500000	70.978	89.3482
26.900000	70.981	87.4370
27.200001	70.970	86.2779
27.600000	70.977	85.0084
28.000000	71.025	83.8099
28.500000	71.115	82.0355
29.000000	71.169	79.9063
29.500000	71.148	77.7800
30.000000	71.083	76.0617
30.400000	71.038	75.0286
30.700001	71.025	74.3722
31.100000	71.039	73.5181
31.500000	71.075	72.5762
32.000000	71.124	71.2519
32.500000	71.159	69.8796
33.000000	71.181	68.5922
33.500000	71.202	67.4192
34.000000	71.224	66.3168
34.500000	71.241	65.2567
35.000000	71.247	64.2581
35.500000	71.242	63.3483
36.000000	71.228	62.5233
36.500000	71.205	61.7637
37.000000	71.174	61.0698
37.500000	71.138	60.4556
38.200001	71.098	59.6921
38.700001	71.083	59.1375
39.500000	71.073	58.1570
40.000000	71.073	57.5478
40.599998	71.088	56.9036
41.200001	71.133	56.3489
41.799999	71.211	55.8141
42.500000	71.319	55.1526
43.099998	71.405	54.6065
43.700001	71.475	54.1660
44.400002	71.537	53.7682
45.000000	71.558	53.4585
45.500000	71.541	53.2619
46.200001	71.483	53.1730
46.799999	71.438	53.1111
47.500000	71.399	52.5863
48.200001	71.329	51.3182
48.700001	71.244	49.9895
49.400002	71.054	47.6884
50.000000	70.794	45.7765
50.799999	70.359	44.7885
51.500000	70.163	45.8813
52.200001	70.349	47.2470
53.000000	70.796	47.0523
53.799999	71.142	45.3831
54.500000	71.315	43.9751
55.200001	71.410	43.0452
56.000000	71.436	42.5055
57.000000	71.341	42.5479
58.000000	71.140	43.4335
59.000000	70.977	45.0983
60.000000	71.014	46.2653
60.799999	71.108	45.9094
61.500000	71.143	44.9320
62.200001	71.130	43.9158
63.000000	71.110	43.0965
64.000000	71.130	42.6700
65.000000	71.213	42.7869
66.000000	71.333	43.1814
67.000000	71.445	43.6715
68.000000	71.525	44.2323
69.000000	71.581	44.9006
70.000000	71.654	45.6654
71.000000	71.777	46.3505
72.000000	71.951	46.7887
73.000000	72.160	46.9393
74.000000	72.381	46.8245
75.000000	72.588	46.5333
76.199997	72.813	46.1199
77.500000	73.039	45.6609
78.800003	73.261	45.0759
80.000000	73.453	44.3457
81.199997	73.627	43.5184
82.500000	73.809	42.6405
83.800003	74.005	41.7393
85.000000	74.194	40.7610
86.199997	74.381	39.6494
87.500000	74.582	38.3358
88.500000	74.735	37.2262
90.000000	74.938	35.4075
91.199997	75.065	33.8989
92.500000	75.162	32.2637
93.800003	75.218	30.6695
95.000000	75.242	29.2510
96.199997	75.250	27.8682
97.500000	75.248	26.3858
98.800003	75.235	24.9180
100.000000	75.214	23.6007
101.500000	75.175	22.0304
103.000000	75.125	20.5515
104.400002	75.064	19.2813
106.000000	74.976	18.0137
107.500000	74.877	17.0327
109.000000	74.765	16.2545
110.599998	74.645	15.6396
112.000000	74.559	15.2721
113.800003	74.499	15.0254
115.000000	74.497	15.0068
117.199997	74.561	15.1630
118.000000	74.598	15.1960
120.599998	74.694	14.6893
122.000000	74.695	14.0021
124.099998	74.650	12.8181
125.000000	74.630	12.3414
126.500000	74.607	11.6490
128.000000	74.598	11.0958
131.500000	74.602	10.0844
132.000000	74.604	9.9283
134.000000	74.618	9.1804
136.000000	74.631	8.2742
138.000000	74.636	7.3693
140.000000	74.628	6.5837
143.000000	74.596	5.5701
145.000000	74.564	4.8955
147.500000	74.526	4.0408
150.000000	74.508	3.2222
152.500000	74.500	2.3939
155.000000	74.485	1.5112
157.500000	74.461	0.6127
160.000000	74.441	-0.1472
162.500000	74.428	-0.7959
165.000000	74.399	-1.5152
167.500000	74.347	-2.3533
170.000000	74.285	-3.2286
172.500000	74.226	-4.0637
175.000000	74.171	-4.8583
177.500000	74.113	-5.6364
180.000000	74.045	-6.3684
182.500000	73.963	-7.0114
185.000000	73.872	-7.5664
187.500000	73.777	-8.0667
190.000000	73.684	-8.5290
192.500000	73.593	-8.9478
195.000000	73.504	-9.3164
197.500000	73.419	-9.6366
200.000000	73.338	-9.9072
203.000000	73.244	-10.1663
206.000000	73.148	-10.3654
209.000000	73.056	-10.5062
212.000000	72.973	-10.5593
214.000000	72.927	-10.5387
218.000000	72.868	-10.4541
220.000000	72.857	-10.4694
224.000000	72.847	-10.7666
227.000000	72.827	-11.1973
230.000000	72.784	-11.6819
233.000000	72.723	-12.1152
236.000000	72.653	-12.4609
240.000000	72.557	-12.8082
243.000000	72.487	-13.0135
247.000000	72.394	-13.2400
250.000000	72.324	-13.3765
254.000000	72.232	-13.5158
258.000000	72.144	-13.6141
262.000000	72.062	-13.6831
265.000000	72.005	-13.7157
269.000000	71.936	-13.7366
272.000000	71.888	-13.7443
276.000000	71.828	-13.7577
280.000000	71.771	-13.7866
285.000000	71.701	-13.8442
290.000000	71.628	-13.9156
295.000000	71.553	-14.0000
300.000000	71.478	-14.0473
304.000000	71.423	-14.0189
307.000000	71.384	-13.9729
311.000000	71.331	-13.9054
315.000000	71.277	-13.8355
320.000000	71.211	-13.7332
325.000000	71.148	-13.6144
330.000000	71.089	-13.4834
335.000000	71.033	-13.3434
340.000000	70.980	-13.1984
345.000000	70.930	-13.0436
350.000000	70.883	-12.8788
355.000000	70.839	-12.7068
360.000000	70.797	-12.5229
365.000000	70.755	-12.3219
370.000000	70.715	-12.1120
375.000000	70.677	-11.9034
382.000000	70.631	-11.6151
387.000000	70.601	-11.4149
395.000000	70.556	-11.1088
400.000000	70.528	-10.9234
406.000000	70.494	-10.7048
412.000000	70.460	-10.4896
418.000000	70.429	-10.2629
425.000000	70.399	-9.9434
431.000000	70.378	-9.6245
437.000000	70.362	-9.2889
444.000000	70.351	-8.8936
450.000000	70.351	-8.5739
455.000000	70.356	-8.3436
462.000000	70.364	-8.0884
468.000000	70.368	-7.9158
475.000000	70.367	-7.7389
482.000000	70.360	-7.5715
487.000000	70.352	-7.4514
494.000000	70.342	-7.2678
500.000000	70.333	-7.0875
508.000000	70.325	-6.8132
515.000000	70.319	-6.5478
522.000000	70.316	-6.2692
530.000000	70.317	-5.9503
538.000000	70.324	-5.6464
545.000000	70.335	-5.3986
552.000000	70.350	-5.1639
560.000000	70.368	-4.9039
570.000000	70.391	-4.5941
580.000000	70.418	-4.3188
590.000000	70.448	-4.0834
600.000000	70.479	-3.8726
608.000000	70.503	-3.7152
615.000000	70.523	-3.5920
622.000000	70.542	-3.4861
630.000000	70.563	-3.3841
640.000000	70.585	-3.2800
650.000000	70.602	-3.1929
660.000000	70.614	-3.0986
670.000000	70.625	-2.9711
680.000000	70.636	-2.8168
690.000000	70.646	-2.6534
700.000000	70.655	-2.4834
710.000000	70.665	-2.3066
720.000000	70.677	-2.1256
730.000000	70.688	-1.9341
740.000000	70.699	-1.7191
750.000000	70.713	-1.4735
762.000000	70.734	-1.1475
775.000000	70.770	-0.7808
788.000000	70.822	-0.4253
800.000000	70.884	-0.1602
812.000000	70.949	-0.0197
825.000000	71.012	-0.0264
838.000000	71.057	-0.1442
850.000000	71.079	-0.2715
862.000000	71.087	-0.3611
875.000000	71.085	-0.3945
885.000000	71.078	-0.3777
900.000000	71.060	-0.2872
912.000000	71.039	-0.1534
925.000000	71.011	0.0629
938.000000	70.977	0.3667
950.000000	70.942	0.7430
962.000000	70.908	1.2368
975.000000	70.876	1.9363
988.000000	70.858	2.8298
1000.000000	70.866	3.8350
1015.000000	70.936	5.2927
1030.000000	71.097	6.7822
1044.000000	71.331	7.8874
1060.000000	71.650	8.4491
1075.000000	71.929	8.2025
1090.000000	72.139	7.4318
1106.000000	72.273	6.4199
1120.000000	72.331	5.6103
1138.000000	72.358	4.8052
1150.000000	72.361	4.4241
1172.000000	72.355	4.0118
1180.000000	72.354	3.9363
1206.000000	72.362	3.8605
1220.000000	72.375	3.8773
1241.000000	72.402	3.9072
1250.000000	72.415	3.9050
1265.000000	72.435	3.8651
1280.000000	72.447	3.7861
1315.000000	72.415	3.7442
1320.000000	72.405	3.7949
1340.000000	72.365	4.1962
1360.000000	72.349	4.8439
1380.000000	72.370	5.5825
1400.000000	72.422	6.3086
1430.000000	72.540	7.2983
1450.000000	72.634	7.8664
1475.000000	72.761	8.4681
1500.000000	72.895	8.9692
1525.000000	73.030	9.3931
1550.000000	73.166	9.7568
1575.000000	73.304	10.0613
1600.000000	73.442	10.3084
1625.000000	73.580	10.5074
1650.000000	73.717	10.6630
1675.000000	73.852	10.7754
1700.000000	73.984	10.8508
1725.000000	74.114	10.9009
1750.000000	74.242	10.9294
1775.000000	74.369	10.9319
1800.000000	74.491	10.9094
1825.000000	74.606	10.8809
1850.000000	74.718	10.8685
1875.000000	74.830	10.8763
1900.000000	74.947	10.8909
1925.000000	75.066	10.8922
1950.000000	75.186	10.8646
1975.000000	75.306	10.8047
2000.000000	75.423	10.7194
2030.000000	75.560	10.5972
2060.000000	75.693	10.4655
2090.000000	75.822	10.3351
2120.000000	75.948	10.2164
2140.000000	76.031	10.1477
2180.000000	76.199	10.0394
2200.000000	76.284	9.9979
2240.000000	76.457	9.9293
2270.000000	76.592	9.8835
2300.000000	76.730	9.8412
2330.000000	76.872	9.8043
2360.000000	77.019	9.7728
2400.000000	77.227	9.7274
2430.000000	77.393	9.6755
2470.000000	77.626	9.5657
2500.000000	77.811	9.4426
2540.000000	78.071	9.2059
2580.000000	78.344	8.8646
2620.000000	78.631	8.3958
2650.000000	78.854	7.9423
2690.000000	79.160	7.1754
2720.000000	79.392	6.4639
2760.000000	79.700	5.3229
2800.000000	80.000	3.9664
2850.000000	80.362	1.9952
2900.000000	80.707	-0.2551
2950.000000	81.042	-2.8396
3000.000000	81.353	-5.9382
3040.000000	81.550	-8.8529
3070.000000	81.651	-11.2167
3110.000000	81.717	-14.4324
3150.000000	81.718	-17.5731
3200.000000	81.650	-21.3063
3250.000000	81.519	-24.8391
3300.000000	81.326	-28.1573
3350.000000	81.071	-31.1619
3400.000000	80.768	-33.7633
3450.000000	80.433	-35.9406
3500.000000	80.081	-37.7142
3550.000000	79.723	-39.1152
3600.000000	79.365	-40.1780
3650.000000	79.013	-40.9360
3700.000000	78.672	-41.4162
3750.000000	78.347	-41.6440
3820.000000	77.924	-41.6033
3870.000000	77.651	-41.3716
3950.000000	77.265	-40.7590
4000.000000	77.054	-40.2773
4060.000000	76.829	-39.6346
4120.000000	76.630	-38.9377
4180.000000	76.456	-38.2069
4250.000000	76.282	-37.3425
4310.000000	76.154	-36.6046
4370.000000	76.042	-35.8677
4440.000000	75.930	-34.9976
4500.000000	75.851	-34.2328
4550.000000	75.801	-33.5826
4620.000000	75.758	-32.6682
4680.000000	75.752	-31.9104
4750.000000	75.787	-31.1235
4820.000000	75.867	-30.5431
4870.000000	75.947	-30.3179
4940.000000	76.083	-30.3434
5000.000000	76.212	-30.7415
5080.000000	76.379	-31.9113
5150.000000	76.491	-33.5942
5220.000000	76.537	-35.8676
5300.000000	76.470	-39.0115
5380.000000	76.244	-42.3972
5450.000000	75.909	-45.2155
5520.000000	75.450	-47.5963
5600.000000	74.800	-49.4830
5700.000000	73.856	-50.2771
5800.000000	72.857	-49.2047
5900.000000	71.907	-46.4001
6000.000000	71.101	-42.2529
6080.000000	70.605	-38.3195
6150.000000	70.293	-34.6552
6220.000000	70.098	-30.9546
6300.000000	70.009	-26.8768
6400.000000	70.070	-22.2936
6500.000000	70.270	-18.5208
6600.000000	70.554	-15.6677
6700.000000	70.880	-13.7472
6800.000000	71.218	-12.7577
6900.000000	71.542	-12.7234
7000.000000	71.819	-13.6833
7100.000000	72.010	-15.6295
7200.000000	72.068	-18.4243
7300.000000	71.952	-21.7494
7400.000000	71.642	-25.1331
7500.000000	71.141	-28.0746
7620.000000	70.330	-30.4763
7750.000000	69.269	-31.3162
7880.000000	68.112	-30.2841
8000.000000	67.024	-27.8152
8120.000000	65.952	-23.9797
8250.000000	64.834	-18.1606
8380.000000	63.829	-10.3497
8500.000000	63.150	-1.3630
8620.000000	62.923	8.7263
8750.000000	63.334	19.3907
8850.000000	64.028	26.2137
9000.000000	65.317	32.7758
9120.000000	66.302	34.6584
9250.000000	67.185	33.9337
9380.000000	67.843	31.1629
9500.000000	68.252	27.3217
9620.000000	68.468	22.5144
9750.000000	68.468	16.4225
9880.000000	68.189	9.7543
10000.000000	67.654	3.6209
10150.000000	66.579	-2.8798
10300.000000	65.043	-6.3070
10440.000000	63.225	-4.6215
10600.000000	60.894	5.4604
10750.000000	59.210	22.2157
10900.000000	59.128	39.7720
11060.000000	60.242	50.2962
11200.000000	60.988	50.6786
11380.000000	60.975	45.6085
11500.000000	60.423	43.0030
11720.000000	58.769	44.1199
11800.000000	58.075	46.5361
12060.000000	56.024	62.3611
12200.000000	55.732	76.4872
12410.000000	57.738	102.0122
12500.000000	59.246	112.1163
12650.000000	61.911	124.3202
12800.000000	64.366	128.8709
13150.000000	68.453	112.2727
13200.000000	68.821	107.6142
13400.000000	69.718	85.8655
13600.000000	69.740	62.0229
13800.000000	69.027	38.4438
14000.000000	67.774	14.5994
14300.000000	65.183	-29.0385
14500.000000	63.040	-69.0886
14750.000000	60.113	-132.2689
15000.000000	57.966	160.0946
15250.000000	57.187	98.8312
15500.000000	56.372	43.8732
15750.000000	54.575	-9.7783
16000.000000	52.317	-64.7217
16250.000000	51.821	-116.6721
16500.000000	53.731	-159.0435
16750.000000	55.889	167.6506
17000.000000	57.335	139.4979
17250.000000	58.042	115.0579
17500.000000	58.291	94.0938
17750.000000	58.356	75.2214
18000.000000	58.330	56.6184
18250.000000	58.211	37.2903
18500.000000	58.048	16.6276
18750.000000	57.912	-6.3964
19000.000000	57.790	-32.9800
19250.000000	57.590	-63.4780
19500.000000	57.224	-96.0350
19750.000000	56.727	-125.4475
